# E (eV)  dos(E)    pdos(E)
-11.392  0.219E-04  0.219E-04
-11.292  0.340E-02  0.340E-02
-11.192  0.899E-01  0.897E-01
-11.092  0.787E+00  0.786E+00
-10.992  0.375E+01  0.375E+01
-10.892  0.773E+01  0.772E+01
-10.792  0.889E+01  0.888E+01
-10.692  0.833E+01  0.832E+01
-10.592  0.743E+01  0.741E+01
-10.492  0.264E+01  0.263E+01
-10.392  0.327E+00  0.326E+00
-10.292  0.176E-01  0.175E-01
-10.192  0.228E-03  0.227E-03
-10.092  0.458E-06  0.456E-06
 -9.992  0.128E-09  0.128E-09
 -9.892  0.488E-14  0.486E-14
 -9.792  0.000E+00  0.000E+00
 -9.692  0.000E+00  0.000E+00
 -9.592  0.000E+00  0.000E+00
 -9.492  0.000E+00  0.000E+00
 -9.392  0.000E+00  0.000E+00
 -9.292  0.000E+00  0.000E+00
 -9.192  0.000E+00  0.000E+00
 -9.092  0.000E+00  0.000E+00
 -8.992  0.000E+00  0.000E+00
 -8.892  0.000E+00  0.000E+00
 -8.792  0.000E+00  0.000E+00
 -8.692  0.000E+00  0.000E+00
 -8.592  0.000E+00  0.000E+00
 -8.492  0.000E+00  0.000E+00
 -8.392  0.000E+00  0.000E+00
 -8.292  0.000E+00  0.000E+00
 -8.192  0.000E+00  0.000E+00
 -8.092  0.000E+00  0.000E+00
 -7.992  0.000E+00  0.000E+00
 -7.892  0.000E+00  0.000E+00
 -7.792  0.000E+00  0.000E+00
 -7.692  0.000E+00  0.000E+00
 -7.592  0.000E+00  0.000E+00
 -7.492  0.000E+00  0.000E+00
 -7.392  0.000E+00  0.000E+00
 -7.292  0.000E+00  0.000E+00
 -7.192  0.000E+00  0.000E+00
 -7.092  0.000E+00  0.000E+00
 -6.992  0.000E+00  0.000E+00
 -6.892  0.000E+00  0.000E+00
 -6.792  0.000E+00  0.000E+00
 -6.692  0.000E+00  0.000E+00
 -6.592  0.000E+00  0.000E+00
 -6.492  0.000E+00  0.000E+00
 -6.392  0.000E+00  0.000E+00
 -6.292  0.000E+00  0.000E+00
 -6.192  0.000E+00  0.000E+00
 -6.092  0.000E+00  0.000E+00
 -5.992  0.000E+00  0.000E+00
 -5.892  0.000E+00  0.000E+00
 -5.792  0.000E+00  0.000E+00
 -5.692  0.000E+00  0.000E+00
 -5.592  0.000E+00  0.000E+00
 -5.492  0.000E+00  0.000E+00
 -5.392  0.000E+00  0.000E+00
 -5.292  0.000E+00  0.000E+00
 -5.192  0.000E+00  0.000E+00
 -5.092  0.000E+00  0.000E+00
 -4.992  0.000E+00  0.000E+00
 -4.892  0.000E+00  0.000E+00
 -4.792  0.000E+00  0.000E+00
 -4.692  0.000E+00  0.000E+00
 -4.592  0.000E+00  0.000E+00
 -4.492  0.000E+00  0.000E+00
 -4.392  0.000E+00  0.000E+00
 -4.292  0.000E+00  0.000E+00
 -4.192  0.000E+00  0.000E+00
 -4.092  0.000E+00  0.000E+00
 -3.992  0.000E+00  0.000E+00
 -3.892  0.000E+00  0.000E+00
 -3.792  0.000E+00  0.000E+00
 -3.692  0.000E+00  0.000E+00
 -3.592  0.000E+00  0.000E+00
 -3.492  0.000E+00  0.000E+00
 -3.392  0.000E+00  0.000E+00
 -3.292  0.000E+00  0.000E+00
 -3.192  0.000E+00  0.000E+00
 -3.092  0.000E+00  0.000E+00
 -2.992  0.000E+00  0.000E+00
 -2.892  0.000E+00  0.000E+00
 -2.792  0.000E+00  0.000E+00
 -2.692  0.000E+00  0.000E+00
 -2.592  0.000E+00  0.000E+00
 -2.492  0.000E+00  0.000E+00
 -2.392  0.000E+00  0.000E+00
 -2.292  0.000E+00  0.000E+00
 -2.192  0.000E+00  0.000E+00
 -2.092  0.000E+00  0.000E+00
 -1.992  0.000E+00  0.000E+00
 -1.892  0.000E+00  0.000E+00
 -1.792  0.000E+00  0.000E+00
 -1.692  0.000E+00  0.000E+00
 -1.592  0.000E+00  0.000E+00
 -1.492  0.000E+00  0.000E+00
 -1.392  0.000E+00  0.000E+00
 -1.292  0.000E+00  0.000E+00
 -1.192  0.000E+00  0.000E+00
 -1.092  0.000E+00  0.000E+00
 -0.992  0.000E+00  0.000E+00
 -0.892  0.000E+00  0.000E+00
 -0.792  0.000E+00  0.000E+00
 -0.692  0.000E+00  0.000E+00
 -0.592  0.000E+00  0.000E+00
 -0.492  0.000E+00  0.000E+00
 -0.392  0.000E+00  0.000E+00
 -0.292  0.000E+00  0.000E+00
 -0.192  0.000E+00  0.000E+00
 -0.092  0.000E+00  0.000E+00
  0.008  0.000E+00  0.000E+00
  0.108  0.000E+00  0.000E+00
  0.208  0.000E+00  0.000E+00
  0.308  0.000E+00  0.000E+00
  0.408  0.000E+00  0.000E+00
  0.508  0.000E+00  0.000E+00
  0.608  0.000E+00  0.000E+00
  0.708  0.000E+00  0.000E+00
  0.808  0.000E+00  0.000E+00
  0.908  0.000E+00  0.000E+00
  1.008  0.000E+00  0.000E+00
  1.108  0.258E-13  0.257E-13
  1.208  0.697E-09  0.693E-09
  1.308  0.258E-05  0.257E-05
  1.408  0.135E-02  0.134E-02
  1.508  0.108E+00  0.108E+00
  1.608  0.166E+01  0.166E+01
  1.708  0.662E+01  0.660E+01
  1.808  0.103E+02  0.103E+02
  1.908  0.110E+02  0.110E+02
  2.008  0.828E+01  0.824E+01
  2.108  0.633E+01  0.630E+01
  2.208  0.302E+01  0.300E+01
  2.308  0.332E+01  0.329E+01
  2.408  0.402E+01  0.399E+01
  2.508  0.171E+01  0.169E+01
  2.608  0.374E+01  0.370E+01
  2.708  0.738E+01  0.730E+01
  2.808  0.351E+01  0.348E+01
  2.908  0.116E+01  0.115E+01
  3.008  0.218E+01  0.215E+01
  3.108  0.761E+01  0.747E+01
  3.208  0.122E+02  0.120E+02
  3.308  0.102E+02  0.100E+02
  3.408  0.593E+01  0.584E+01
  3.508  0.266E+01  0.262E+01
  3.608  0.382E+01  0.378E+01
  3.708  0.201E+01  0.199E+01
  3.808  0.203E+00  0.201E+00
  3.908  0.105E+00  0.104E+00
  4.008  0.448E+00  0.444E+00
  4.108  0.560E+00  0.553E+00
  4.208  0.130E+00  0.129E+00
  4.308  0.456E-02  0.450E-02
  4.408  0.232E-01  0.232E-01
  4.508  0.426E+00  0.425E+00
  4.608  0.107E+01  0.107E+01
  4.708  0.853E+00  0.850E+00
  4.808  0.206E+01  0.205E+01
  4.908  0.141E+01  0.141E+01
  5.008  0.140E+01  0.140E+01
  5.108  0.828E+00  0.826E+00
  5.208  0.401E+00  0.399E+00
  5.308  0.210E+01  0.209E+01
  5.408  0.665E+01  0.662E+01
  5.508  0.934E+01  0.929E+01
  5.608  0.681E+01  0.678E+01
  5.708  0.966E+01  0.962E+01
  5.808  0.110E+02  0.109E+02
  5.908  0.818E+01  0.813E+01
  6.008  0.132E+02  0.131E+02
  6.108  0.159E+02  0.158E+02
  6.208  0.197E+02  0.196E+02
  6.308  0.279E+02  0.278E+02
  6.408  0.325E+02  0.324E+02
  6.508  0.307E+02  0.306E+02
  6.608  0.260E+02  0.259E+02
  6.708  0.299E+02  0.298E+02
  6.808  0.307E+02  0.305E+02
  6.908  0.248E+02  0.247E+02
  7.008  0.131E+02  0.130E+02
  7.108  0.545E+01  0.538E+01
  7.208  0.109E+02  0.107E+02
  7.308  0.693E+01  0.682E+01
  7.408  0.330E+01  0.327E+01
  7.508  0.400E+01  0.396E+01
  7.608  0.512E+01  0.505E+01
  7.708  0.423E+01  0.419E+01
  7.808  0.657E+01  0.652E+01
  7.908  0.116E+02  0.115E+02
  8.008  0.575E+01  0.571E+01
  8.108  0.299E+01  0.297E+01
  8.208  0.312E+01  0.310E+01
  8.308  0.227E+01  0.225E+01
  8.408  0.864E+00  0.858E+00
  8.508  0.192E+00  0.191E+00
  8.608  0.991E-02  0.982E-02
  8.708  0.387E-01  0.380E-01
  8.808  0.167E+00  0.164E+00
  8.908  0.978E-01  0.959E-01
  9.008  0.774E-02  0.760E-02
  9.108  0.795E-03  0.780E-03
  9.208  0.583E-01  0.572E-01
  9.308  0.646E+00  0.634E+00
  9.408  0.968E+00  0.950E+00
  9.508  0.197E+00  0.193E+00
  9.608  0.558E-01  0.544E-01
  9.708  0.887E+00  0.863E+00
  9.808  0.217E+01  0.205E+01
  9.908  0.995E+00  0.660E+00
 10.008  0.281E+00  0.548E-01
 10.108  0.552E+00  0.513E+00
 10.208  0.147E+01  0.140E+01
 10.308  0.138E+01  0.107E+01
 10.408  0.212E+01  0.150E+01
 10.508  0.192E+01  0.164E+01
 10.608  0.514E+01  0.461E+01
 10.708  0.534E+01  0.417E+01
 10.808  0.290E+01  0.168E+01
 10.908  0.817E+00  0.399E+00
 11.008  0.286E+01  0.138E+01
 11.108  0.305E+01  0.148E+01
 11.208  0.188E+01  0.155E+01
 11.308  0.182E+01  0.168E+01
 11.408  0.374E+00  0.323E+00
 11.508  0.169E+01  0.888E+00
 11.608  0.648E+01  0.281E+01
 11.708  0.530E+01  0.191E+01
 11.808  0.279E+01  0.135E+01
 11.908  0.145E+01  0.113E+01
 12.008  0.355E+00  0.317E+00
 12.108  0.359E+00  0.296E+00
 12.208  0.136E+01  0.102E+01
 12.308  0.332E+01  0.176E+01
 12.408  0.369E+01  0.179E+01
 12.508  0.633E+00  0.304E+00
 12.608  0.165E+00  0.883E-02
 12.708  0.922E+00  0.247E-01
 12.808  0.126E+01  0.428E+00
 12.908  0.220E+01  0.169E+01
 13.008  0.190E+01  0.146E+01
 13.108  0.143E+01  0.107E+01
 13.208  0.456E+00  0.374E+00
 13.308  0.110E+00  0.105E+00
 13.408  0.844E-02  0.819E-02
 13.508  0.977E-04  0.925E-04
 13.608  0.180E-02  0.430E-03
 13.708  0.135E+00  0.323E-01
 13.808  0.137E+01  0.328E+00
 13.908  0.188E+01  0.451E+00
 14.008  0.350E+00  0.839E-01
 14.108  0.882E-02  0.211E-02
 14.208  0.301E-04  0.719E-05
 14.308  0.139E-07  0.332E-08
 14.408  0.865E-12  0.207E-12
 14.508  0.731E-17  0.175E-17
 14.608  0.000E+00  0.000E+00
 14.708  0.000E+00  0.000E+00
 14.808  0.157E-15  0.467E-18
 14.908  0.101E-10  0.301E-13
 15.008  0.883E-07  0.263E-09
 15.108  0.104E-03  0.311E-06
 15.208  0.167E-01  0.497E-04
 15.308  0.361E+00  0.108E-02
 15.408  0.106E+01  0.315E-02
 15.508  0.419E+00  0.125E-02
 15.608  0.225E-01  0.669E-04
 15.708  0.163E-03  0.486E-06
 15.808  0.172E-06  0.111E-07
 15.908  0.146E-04  0.133E-04
 16.008  0.247E-02  0.226E-02
 16.108  0.566E-01  0.517E-01
 16.208  0.176E+00  0.160E+00
 16.308  0.737E-01  0.673E-01
 16.408  0.419E-02  0.382E-02
 16.508  0.322E-04  0.294E-04
 16.608  0.335E-07  0.306E-07
