# E (eV)   ldos(E)   pdos(E)    
-11.392  0.106E-05  0.106E-05
-11.292  0.163E-03  0.163E-03
-11.192  0.418E-02  0.418E-02
-11.092  0.330E-01  0.330E-01
-10.992  0.136E+00  0.136E+00
-10.892  0.241E+00  0.241E+00
-10.792  0.230E+00  0.230E+00
-10.692  0.162E+00  0.162E+00
-10.592  0.973E-01  0.973E-01
-10.492  0.258E-01  0.258E-01
-10.392  0.159E-02  0.159E-02
-10.292  0.203E-04  0.203E-04
-10.192  0.438E-07  0.438E-07
-10.092  0.140E-10  0.140E-10
 -9.992  0.634E-15  0.634E-15
 -9.892  0.449E-21  0.449E-21
 -9.792  0.000E+00  0.000E+00
 -9.692  0.000E+00  0.000E+00
 -9.592  0.000E+00  0.000E+00
 -9.492  0.000E+00  0.000E+00
 -9.392  0.000E+00  0.000E+00
 -9.292  0.000E+00  0.000E+00
 -9.192  0.000E+00  0.000E+00
 -9.092  0.000E+00  0.000E+00
 -8.992  0.000E+00  0.000E+00
 -8.892  0.000E+00  0.000E+00
 -8.792  0.000E+00  0.000E+00
 -8.692  0.000E+00  0.000E+00
 -8.592  0.000E+00  0.000E+00
 -8.492  0.000E+00  0.000E+00
 -8.392  0.000E+00  0.000E+00
 -8.292  0.000E+00  0.000E+00
 -8.192  0.000E+00  0.000E+00
 -8.092  0.000E+00  0.000E+00
 -7.992  0.000E+00  0.000E+00
 -7.892  0.000E+00  0.000E+00
 -7.792  0.000E+00  0.000E+00
 -7.692  0.000E+00  0.000E+00
 -7.592  0.000E+00  0.000E+00
 -7.492  0.000E+00  0.000E+00
 -7.392  0.000E+00  0.000E+00
 -7.292  0.000E+00  0.000E+00
 -7.192  0.000E+00  0.000E+00
 -7.092  0.000E+00  0.000E+00
 -6.992  0.000E+00  0.000E+00
 -6.892  0.000E+00  0.000E+00
 -6.792  0.000E+00  0.000E+00
 -6.692  0.000E+00  0.000E+00
 -6.592  0.000E+00  0.000E+00
 -6.492  0.000E+00  0.000E+00
 -6.392  0.000E+00  0.000E+00
 -6.292  0.000E+00  0.000E+00
 -6.192  0.000E+00  0.000E+00
 -6.092  0.000E+00  0.000E+00
 -5.992  0.000E+00  0.000E+00
 -5.892  0.000E+00  0.000E+00
 -5.792  0.000E+00  0.000E+00
 -5.692  0.000E+00  0.000E+00
 -5.592  0.000E+00  0.000E+00
 -5.492  0.000E+00  0.000E+00
 -5.392  0.000E+00  0.000E+00
 -5.292  0.000E+00  0.000E+00
 -5.192  0.000E+00  0.000E+00
 -5.092  0.000E+00  0.000E+00
 -4.992  0.000E+00  0.000E+00
 -4.892  0.000E+00  0.000E+00
 -4.792  0.000E+00  0.000E+00
 -4.692  0.000E+00  0.000E+00
 -4.592  0.000E+00  0.000E+00
 -4.492  0.000E+00  0.000E+00
 -4.392  0.000E+00  0.000E+00
 -4.292  0.000E+00  0.000E+00
 -4.192  0.000E+00  0.000E+00
 -4.092  0.000E+00  0.000E+00
 -3.992  0.000E+00  0.000E+00
 -3.892  0.000E+00  0.000E+00
 -3.792  0.000E+00  0.000E+00
 -3.692  0.000E+00  0.000E+00
 -3.592  0.000E+00  0.000E+00
 -3.492  0.000E+00  0.000E+00
 -3.392  0.000E+00  0.000E+00
 -3.292  0.000E+00  0.000E+00
 -3.192  0.000E+00  0.000E+00
 -3.092  0.000E+00  0.000E+00
 -2.992  0.000E+00  0.000E+00
 -2.892  0.000E+00  0.000E+00
 -2.792  0.000E+00  0.000E+00
 -2.692  0.000E+00  0.000E+00
 -2.592  0.000E+00  0.000E+00
 -2.492  0.000E+00  0.000E+00
 -2.392  0.000E+00  0.000E+00
 -2.292  0.000E+00  0.000E+00
 -2.192  0.000E+00  0.000E+00
 -2.092  0.000E+00  0.000E+00
 -1.992  0.000E+00  0.000E+00
 -1.892  0.000E+00  0.000E+00
 -1.792  0.000E+00  0.000E+00
 -1.692  0.000E+00  0.000E+00
 -1.592  0.000E+00  0.000E+00
 -1.492  0.000E+00  0.000E+00
 -1.392  0.000E+00  0.000E+00
 -1.292  0.000E+00  0.000E+00
 -1.192  0.000E+00  0.000E+00
 -1.092  0.000E+00  0.000E+00
 -0.992  0.000E+00  0.000E+00
 -0.892  0.000E+00  0.000E+00
 -0.792  0.000E+00  0.000E+00
 -0.692  0.000E+00  0.000E+00
 -0.592  0.000E+00  0.000E+00
 -0.492  0.000E+00  0.000E+00
 -0.392  0.000E+00  0.000E+00
 -0.292  0.000E+00  0.000E+00
 -0.192  0.000E+00  0.000E+00
 -0.092  0.000E+00  0.000E+00
  0.008  0.000E+00  0.000E+00
  0.108  0.000E+00  0.000E+00
  0.208  0.000E+00  0.000E+00
  0.308  0.000E+00  0.000E+00
  0.408  0.000E+00  0.000E+00
  0.508  0.000E+00  0.000E+00
  0.608  0.000E+00  0.000E+00
  0.708  0.000E+00  0.000E+00
  0.808  0.000E+00  0.000E+00
  0.908  0.000E+00  0.000E+00
  1.008  0.000E+00  0.000E+00
  1.108  0.116E-14  0.116E-14
  1.208  0.313E-10  0.313E-10
  1.308  0.115E-06  0.115E-06
  1.408  0.589E-04  0.589E-04
  1.508  0.447E-02  0.447E-02
  1.608  0.615E-01  0.615E-01
  1.708  0.222E+00  0.222E+00
  1.808  0.331E+00  0.331E+00
  1.908  0.310E+00  0.310E+00
  2.008  0.183E+00  0.183E+00
  2.108  0.121E+00  0.121E+00
  2.208  0.689E-01  0.689E-01
  2.308  0.794E-01  0.794E-01
  2.408  0.695E-01  0.695E-01
  2.508  0.249E-01  0.249E-01
  2.608  0.478E-01  0.478E-01
  2.708  0.773E-01  0.773E-01
  2.808  0.193E-01  0.193E-01
  2.908  0.157E-02  0.157E-02
  3.008  0.183E-02  0.183E-02
  3.108  0.264E-01  0.264E-01
  3.208  0.738E-01  0.738E-01
  3.308  0.366E-01  0.366E-01
  3.408  0.416E-02  0.416E-02
  3.508  0.463E-03  0.463E-03
  3.608  0.444E-03  0.444E-03
  3.708  0.110E-03  0.110E-03
  3.808  0.763E-03  0.763E-03
  3.908  0.119E-01  0.119E-01
  4.008  0.253E-01  0.253E-01
  4.108  0.726E-02  0.726E-02
  4.208  0.282E-03  0.282E-03
  4.308  0.167E-04  0.167E-04
  4.408  0.206E-02  0.206E-02
  4.508  0.378E-01  0.378E-01
  4.608  0.953E-01  0.953E-01
  4.708  0.794E-01  0.794E-01
  4.808  0.198E+00  0.198E+00
  4.908  0.132E+00  0.132E+00
  5.008  0.120E+00  0.120E+00
  5.108  0.705E-01  0.705E-01
  5.208  0.316E-01  0.316E-01
  5.308  0.145E+00  0.145E+00
  5.408  0.402E+00  0.402E+00
  5.508  0.475E+00  0.475E+00
  5.608  0.234E+00  0.234E+00
  5.708  0.131E+00  0.131E+00
  5.808  0.109E+00  0.109E+00
  5.908  0.638E-01  0.638E-01
  6.008  0.583E-01  0.583E-01
  6.108  0.606E-01  0.606E-01
  6.208  0.573E-01  0.573E-01
  6.308  0.536E-01  0.536E-01
  6.408  0.597E-01  0.597E-01
  6.508  0.478E-01  0.478E-01
  6.608  0.326E-01  0.326E-01
  6.708  0.483E-01  0.483E-01
  6.808  0.511E-01  0.511E-01
  6.908  0.739E-01  0.739E-01
  7.008  0.659E-01  0.659E-01
  7.108  0.615E-01  0.615E-01
  7.208  0.188E+00  0.188E+00
  7.308  0.150E+00  0.150E+00
  7.408  0.759E-01  0.759E-01
  7.508  0.111E+00  0.111E+00
  7.608  0.154E+00  0.154E+00
  7.708  0.101E+00  0.101E+00
  7.808  0.176E+00  0.176E+00
  7.908  0.326E+00  0.326E+00
  8.008  0.140E+00  0.140E+00
  8.108  0.639E-01  0.639E-01
  8.208  0.695E-01  0.695E-01
  8.308  0.524E-01  0.524E-01
  8.408  0.214E-01  0.214E-01
  8.508  0.497E-02  0.497E-02
  8.608  0.291E-03  0.291E-03
  8.708  0.208E-02  0.208E-02
  8.808  0.900E-02  0.900E-02
  8.908  0.527E-02  0.527E-02
  9.008  0.417E-03  0.417E-03
  9.108  0.500E-04  0.500E-04
  9.208  0.373E-02  0.373E-02
  9.308  0.413E-01  0.413E-01
  9.408  0.619E-01  0.619E-01
  9.508  0.126E-01  0.126E-01
  9.608  0.411E-02  0.411E-02
  9.708  0.661E-01  0.661E-01
  9.808  0.157E+00  0.157E+00
  9.908  0.506E-01  0.506E-01
 10.008  0.445E-02  0.445E-02
 10.108  0.443E-01  0.443E-01
 10.208  0.124E+00  0.124E+00
 10.308  0.149E+00  0.149E+00
 10.408  0.265E+00  0.265E+00
 10.508  0.211E+00  0.211E+00
 10.608  0.513E+00  0.513E+00
 10.708  0.490E+00  0.490E+00
 10.808  0.206E+00  0.206E+00
 10.908  0.478E-01  0.478E-01
 11.008  0.168E+00  0.168E+00
 11.108  0.184E+00  0.184E+00
 11.208  0.178E+00  0.178E+00
 11.308  0.191E+00  0.191E+00
 11.408  0.365E-01  0.365E-01
 11.508  0.998E-01  0.998E-01
 11.608  0.313E+00  0.313E+00
 11.708  0.207E+00  0.207E+00
 11.808  0.163E+00  0.163E+00
 11.908  0.171E+00  0.171E+00
 12.008  0.500E-01  0.500E-01
 12.108  0.361E-01  0.361E-01
 12.208  0.127E+00  0.127E+00
 12.308  0.257E+00  0.257E+00
 12.408  0.273E+00  0.273E+00
 12.508  0.465E-01  0.465E-01
 12.608  0.109E-02  0.109E-02
 12.708  0.258E-02  0.258E-02
 12.808  0.744E-01  0.744E-01
 12.908  0.301E+00  0.301E+00
 13.008  0.278E+00  0.278E+00
 13.108  0.219E+00  0.219E+00
 13.208  0.706E-01  0.706E-01
 13.308  0.173E-01  0.173E-01
 13.408  0.133E-02  0.133E-02
 13.508  0.151E-04  0.151E-04
 13.608  0.882E-04  0.882E-04
 13.708  0.662E-02  0.662E-02
 13.808  0.672E-01  0.672E-01
 13.908  0.924E-01  0.924E-01
 14.008  0.172E-01  0.172E-01
 14.108  0.433E-03  0.433E-03
 14.208  0.147E-05  0.147E-05
 14.308  0.680E-09  0.680E-09
 14.408  0.424E-13  0.424E-13
 14.508  0.359E-18  0.359E-18
 14.608  0.000E+00  0.000E+00
 14.708  0.000E+00  0.000E+00
 14.808  0.402E-24  0.402E-24
 14.908  0.259E-19  0.259E-19
 15.008  0.226E-15  0.226E-15
 15.108  0.268E-12  0.268E-12
 15.208  0.428E-10  0.428E-10
 15.308  0.926E-09  0.926E-09
 15.408  0.271E-08  0.271E-08
 15.508  0.107E-08  0.107E-08
 15.608  0.576E-10  0.576E-10
 15.708  0.654E-12  0.654E-12
 15.808  0.218E-08  0.218E-08
 15.908  0.273E-05  0.273E-05
 16.008  0.462E-03  0.462E-03
 16.108  0.106E-01  0.106E-01
 16.208  0.329E-01  0.329E-01
 16.308  0.138E-01  0.138E-01
 16.408  0.784E-03  0.784E-03
 16.508  0.603E-05  0.603E-05
 16.608  0.627E-08  0.627E-08
