# E (eV)   ldos(E)   pdos(E)    
-12.721  0.573E-06  0.573E-06
-12.621  0.850E-04  0.850E-04
-12.521  0.171E-02  0.171E-02
-12.421  0.464E-02  0.464E-02
-12.321  0.216E-02  0.216E-02
-12.221  0.962E-02  0.962E-02
-12.121  0.294E-01  0.294E-01
-12.021  0.281E-01  0.281E-01
-11.921  0.794E-01  0.794E-01
-11.821  0.129E+00  0.129E+00
-11.721  0.986E-01  0.986E-01
-11.621  0.288E-01  0.288E-01
-11.521  0.267E-01  0.267E-01
-11.421  0.118E+00  0.118E+00
-11.321  0.921E-01  0.921E-01
-11.221  0.120E-01  0.120E-01
-11.121  0.367E-02  0.367E-02
-11.021  0.422E-01  0.422E-01
-10.921  0.731E-01  0.731E-01
-10.821  0.283E-01  0.283E-01
-10.721  0.174E-01  0.174E-01
-10.621  0.374E-02  0.374E-02
-10.521  0.123E-03  0.123E-03
-10.421  0.590E-06  0.590E-06
-10.321  0.124E-08  0.124E-08
-10.221  0.392E-10  0.392E-10
-10.121  0.255E-12  0.255E-12
-10.021  0.227E-15  0.227E-15
 -9.921  0.274E-19  0.274E-19
 -9.821  0.449E-24  0.449E-24
 -9.721  0.000E+00  0.000E+00
 -9.621  0.000E+00  0.000E+00
 -9.521  0.000E+00  0.000E+00
 -9.421  0.000E+00  0.000E+00
 -9.321  0.000E+00  0.000E+00
 -9.221  0.000E+00  0.000E+00
 -9.121  0.000E+00  0.000E+00
 -9.021  0.000E+00  0.000E+00
 -8.921  0.000E+00  0.000E+00
 -8.821  0.000E+00  0.000E+00
 -8.721  0.000E+00  0.000E+00
 -8.621  0.000E+00  0.000E+00
 -8.521  0.000E+00  0.000E+00
 -8.421  0.000E+00  0.000E+00
 -8.321  0.000E+00  0.000E+00
 -8.221  0.000E+00  0.000E+00
 -8.121  0.000E+00  0.000E+00
 -8.021  0.000E+00  0.000E+00
 -7.921  0.000E+00  0.000E+00
 -7.821  0.000E+00  0.000E+00
 -7.721  0.000E+00  0.000E+00
 -7.621  0.000E+00  0.000E+00
 -7.521  0.000E+00  0.000E+00
 -7.421  0.000E+00  0.000E+00
 -7.321  0.000E+00  0.000E+00
 -7.221  0.000E+00  0.000E+00
 -7.121  0.000E+00  0.000E+00
 -7.021  0.000E+00  0.000E+00
 -6.921  0.000E+00  0.000E+00
 -6.821  0.000E+00  0.000E+00
 -6.721  0.000E+00  0.000E+00
 -6.621  0.000E+00  0.000E+00
 -6.521  0.000E+00  0.000E+00
 -6.421  0.000E+00  0.000E+00
 -6.321  0.000E+00  0.000E+00
 -6.221  0.000E+00  0.000E+00
 -6.121  0.000E+00  0.000E+00
 -6.021  0.000E+00  0.000E+00
 -5.921  0.000E+00  0.000E+00
 -5.821  0.000E+00  0.000E+00
 -5.721  0.000E+00  0.000E+00
 -5.621  0.000E+00  0.000E+00
 -5.521  0.000E+00  0.000E+00
 -5.421  0.000E+00  0.000E+00
 -5.321  0.000E+00  0.000E+00
 -5.221  0.000E+00  0.000E+00
 -5.121  0.000E+00  0.000E+00
 -5.021  0.000E+00  0.000E+00
 -4.921  0.000E+00  0.000E+00
 -4.821  0.000E+00  0.000E+00
 -4.721  0.000E+00  0.000E+00
 -4.621  0.000E+00  0.000E+00
 -4.521  0.000E+00  0.000E+00
 -4.421  0.000E+00  0.000E+00
 -4.321  0.000E+00  0.000E+00
 -4.221  0.000E+00  0.000E+00
 -4.121  0.000E+00  0.000E+00
 -4.021  0.000E+00  0.000E+00
 -3.921  0.000E+00  0.000E+00
 -3.821  0.000E+00  0.000E+00
 -3.721  0.000E+00  0.000E+00
 -3.621  0.000E+00  0.000E+00
 -3.521  0.000E+00  0.000E+00
 -3.421  0.000E+00  0.000E+00
 -3.321  0.000E+00  0.000E+00
 -3.221  0.000E+00  0.000E+00
 -3.121  0.000E+00  0.000E+00
 -3.021  0.000E+00  0.000E+00
 -2.921  0.000E+00  0.000E+00
 -2.821  0.000E+00  0.000E+00
 -2.721  0.000E+00  0.000E+00
 -2.621  0.000E+00  0.000E+00
 -2.521  0.000E+00  0.000E+00
 -2.421  0.000E+00  0.000E+00
 -2.321  0.000E+00  0.000E+00
 -2.221  0.000E+00  0.000E+00
 -2.121  0.000E+00  0.000E+00
 -2.021  0.141E-18  0.141E-18
 -1.921  0.116E-13  0.116E-13
 -1.821  0.128E-09  0.128E-09
 -1.721  0.193E-06  0.193E-06
 -1.621  0.392E-04  0.392E-04
 -1.521  0.108E-02  0.108E-02
 -1.421  0.401E-02  0.401E-02
 -1.321  0.202E-02  0.202E-02
 -1.221  0.178E-03  0.178E-03
 -1.121  0.178E-02  0.178E-02
 -1.021  0.122E-01  0.122E-01
 -0.921  0.242E-01  0.242E-01
 -0.821  0.354E-01  0.354E-01
 -0.721  0.273E-01  0.273E-01
 -0.621  0.456E-01  0.456E-01
 -0.521  0.591E-01  0.591E-01
 -0.421  0.467E-01  0.467E-01
 -0.321  0.583E-01  0.583E-01
 -0.221  0.246E-01  0.246E-01
 -0.121  0.193E-01  0.193E-01
 -0.021  0.518E-01  0.518E-01
  0.079  0.334E-01  0.334E-01
  0.179  0.172E-01  0.172E-01
  0.279  0.715E-02  0.715E-02
  0.379  0.122E-02  0.122E-02
  0.479  0.349E-02  0.349E-02
  0.579  0.617E-02  0.617E-02
  0.679  0.122E-01  0.122E-01
  0.779  0.266E-01  0.266E-01
  0.879  0.355E-01  0.355E-01
  0.979  0.129E-01  0.129E-01
  1.079  0.134E-01  0.134E-01
  1.179  0.403E-01  0.403E-01
  1.279  0.630E-01  0.630E-01
  1.379  0.638E-01  0.638E-01
  1.479  0.128E+00  0.128E+00
  1.579  0.123E+00  0.123E+00
  1.679  0.120E+00  0.120E+00
  1.779  0.211E+00  0.211E+00
  1.879  0.131E+00  0.131E+00
  1.979  0.479E-01  0.479E-01
  2.079  0.536E-01  0.536E-01
  2.179  0.572E-01  0.572E-01
  2.279  0.711E-01  0.711E-01
  2.379  0.115E+00  0.115E+00
  2.479  0.119E+00  0.119E+00
  2.579  0.467E-01  0.467E-01
  2.679  0.122E-01  0.122E-01
  2.779  0.165E-01  0.165E-01
  2.879  0.125E-01  0.125E-01
  2.979  0.167E-01  0.167E-01
  3.079  0.129E-01  0.129E-01
  3.179  0.285E-02  0.285E-02
  3.279  0.350E-02  0.350E-02
  3.379  0.116E-02  0.116E-02
  3.479  0.520E-04  0.520E-04
  3.579  0.275E-05  0.275E-05
  3.679  0.383E-03  0.383E-03
  3.779  0.815E-02  0.815E-02
  3.879  0.235E-01  0.235E-01
  3.979  0.983E-02  0.983E-02
  4.079  0.176E-01  0.176E-01
  4.179  0.959E-01  0.959E-01
  4.279  0.214E+00  0.214E+00
  4.379  0.132E+00  0.132E+00
  4.479  0.448E-01  0.448E-01
  4.579  0.220E+00  0.220E+00
  4.679  0.286E+00  0.286E+00
  4.779  0.141E+00  0.141E+00
  4.879  0.341E-01  0.341E-01
  4.979  0.440E-02  0.440E-02
  5.079  0.883E-02  0.883E-02
  5.179  0.801E-01  0.801E-01
  5.279  0.101E+00  0.101E+00
  5.379  0.217E-01  0.217E-01
  5.479  0.573E-01  0.573E-01
  5.579  0.149E+00  0.149E+00
  5.679  0.654E-01  0.654E-01
  5.779  0.787E-01  0.787E-01
  5.879  0.130E+00  0.130E+00
  5.979  0.200E+00  0.200E+00
  6.079  0.205E+00  0.205E+00
  6.179  0.457E-01  0.457E-01
  6.279  0.880E-01  0.880E-01
  6.379  0.330E+00  0.330E+00
  6.479  0.240E+00  0.240E+00
  6.579  0.591E-01  0.591E-01
  6.679  0.508E-01  0.508E-01
  6.779  0.595E-01  0.595E-01
  6.879  0.639E-01  0.639E-01
  6.979  0.301E-01  0.301E-01
  7.079  0.173E-01  0.173E-01
  7.179  0.492E-02  0.492E-02
  7.279  0.203E-03  0.203E-03
  7.379  0.113E-05  0.113E-05
  7.479  0.962E-08  0.962E-08
  7.579  0.670E-05  0.670E-05
  7.679  0.692E-03  0.692E-03
  7.779  0.969E-02  0.969E-02
  7.879  0.183E-01  0.183E-01
  7.979  0.470E-02  0.470E-02
  8.079  0.163E-03  0.163E-03
  8.179  0.765E-06  0.765E-06
  8.279  0.183E-08  0.183E-08
  8.379  0.252E-05  0.252E-05
  8.479  0.637E-03  0.637E-03
  8.579  0.218E-01  0.218E-01
  8.679  0.101E+00  0.101E+00
  8.779  0.635E-01  0.635E-01
  8.879  0.539E-02  0.539E-02
  8.979  0.720E-04  0.720E-04
  9.079  0.208E-02  0.208E-02
  9.179  0.584E-01  0.584E-01
  9.279  0.222E+00  0.222E+00
  9.379  0.114E+00  0.114E+00
  9.479  0.793E-02  0.793E-02
  9.579  0.769E-03  0.769E-03
  9.679  0.270E-01  0.270E-01
  9.779  0.142E+00  0.142E+00
  9.879  0.101E+00  0.101E+00
  9.979  0.982E-02  0.982E-02
 10.079  0.728E-02  0.728E-02
 10.179  0.852E-01  0.852E-01
 10.279  0.330E+00  0.330E+00
 10.379  0.808E+00  0.808E+00
 10.479  0.575E+00  0.575E+00
 10.579  0.295E+00  0.295E+00
 10.679  0.679E-01  0.679E-01
 10.779  0.442E-01  0.442E-01
 10.879  0.107E+00  0.107E+00
 10.979  0.236E+00  0.236E+00
 11.079  0.378E+00  0.378E+00
 11.179  0.147E+00  0.147E+00
 11.279  0.125E-01  0.125E-01
 11.379  0.651E-01  0.651E-01
 11.479  0.259E+00  0.259E+00
 11.579  0.280E+00  0.280E+00
 11.679  0.165E+00  0.165E+00
 11.779  0.125E+00  0.125E+00
 11.879  0.173E+00  0.173E+00
 11.979  0.105E+00  0.105E+00
 12.079  0.957E-01  0.957E-01
 12.179  0.950E-01  0.950E-01
 12.279  0.887E-01  0.887E-01
 12.379  0.318E+00  0.318E+00
 12.479  0.180E+00  0.180E+00
 12.579  0.139E-01  0.139E-01
 12.679  0.153E-03  0.153E-03
 12.779  0.209E-02  0.209E-02
 12.879  0.680E-01  0.680E-01
 12.979  0.304E+00  0.304E+00
 13.079  0.262E+00  0.262E+00
 13.179  0.244E+00  0.244E+00
 13.279  0.110E+00  0.110E+00
 13.379  0.198E-01  0.198E-01
 13.479  0.120E-02  0.120E-02
 13.579  0.119E-04  0.119E-04
 13.679  0.114E-04  0.114E-04
 13.779  0.175E-02  0.175E-02
 13.879  0.365E-01  0.365E-01
 13.979  0.103E+00  0.103E+00
 14.079  0.393E-01  0.393E-01
 14.179  0.203E-02  0.203E-02
 14.279  0.142E-04  0.142E-04
 14.379  0.134E-07  0.134E-07
 14.479  0.171E-11  0.171E-11
 14.579  0.297E-16  0.297E-16
 14.679  0.000E+00  0.000E+00
 14.779  0.000E+00  0.000E+00
 14.879  0.581E-26  0.581E-26
 14.979  0.758E-21  0.758E-21
 15.079  0.134E-16  0.134E-16
 15.179  0.320E-13  0.320E-13
 15.279  0.103E-10  0.103E-10
 15.379  0.453E-09  0.453E-09
 15.479  0.268E-08  0.268E-08
 15.579  0.215E-08  0.215E-08
 15.679  0.233E-09  0.233E-09
 15.779  0.343E-11  0.343E-11
 15.879  0.723E-10  0.723E-10
 15.979  0.202E-06  0.202E-06
 16.079  0.762E-04  0.762E-04
 16.179  0.390E-02  0.390E-02
 16.279  0.270E-01  0.270E-01
 16.379  0.253E-01  0.253E-01
 16.479  0.320E-02  0.320E-02
 16.579  0.549E-04  0.549E-04
 16.679  0.128E-06  0.128E-06
