# E (eV)  dos(E)    pdos(E)
-12.721  0.218E-04  0.217E-04
-12.621  0.323E-02  0.323E-02
-12.521  0.649E-01  0.648E-01
-12.421  0.176E+00  0.176E+00
-12.321  0.827E-01  0.826E-01
-12.221  0.380E+00  0.379E+00
-12.121  0.113E+01  0.113E+01
-12.021  0.101E+01  0.101E+01
-11.921  0.291E+01  0.290E+01
-11.821  0.444E+01  0.444E+01
-11.721  0.323E+01  0.323E+01
-11.621  0.941E+00  0.940E+00
-11.521  0.121E+01  0.120E+01
-11.421  0.537E+01  0.536E+01
-11.321  0.414E+01  0.413E+01
-11.221  0.535E+00  0.534E+00
-11.121  0.269E+00  0.268E+00
-11.021  0.315E+01  0.315E+01
-10.921  0.544E+01  0.543E+01
-10.821  0.249E+01  0.249E+01
-10.721  0.196E+01  0.195E+01
-10.621  0.472E+00  0.471E+00
-10.521  0.241E+00  0.240E+00
-10.421  0.286E+00  0.284E+00
-10.321  0.736E-01  0.733E-01
-10.221  0.323E-02  0.321E-02
-10.121  0.207E-04  0.206E-04
-10.021  0.183E-07  0.183E-07
 -9.921  0.221E-11  0.221E-11
 -9.821  0.362E-16  0.361E-16
 -9.721  0.000E+00  0.000E+00
 -9.621  0.000E+00  0.000E+00
 -9.521  0.000E+00  0.000E+00
 -9.421  0.000E+00  0.000E+00
 -9.321  0.000E+00  0.000E+00
 -9.221  0.000E+00  0.000E+00
 -9.121  0.000E+00  0.000E+00
 -9.021  0.000E+00  0.000E+00
 -8.921  0.000E+00  0.000E+00
 -8.821  0.000E+00  0.000E+00
 -8.721  0.000E+00  0.000E+00
 -8.621  0.000E+00  0.000E+00
 -8.521  0.000E+00  0.000E+00
 -8.421  0.000E+00  0.000E+00
 -8.321  0.000E+00  0.000E+00
 -8.221  0.000E+00  0.000E+00
 -8.121  0.000E+00  0.000E+00
 -8.021  0.000E+00  0.000E+00
 -7.921  0.000E+00  0.000E+00
 -7.821  0.000E+00  0.000E+00
 -7.721  0.000E+00  0.000E+00
 -7.621  0.000E+00  0.000E+00
 -7.521  0.000E+00  0.000E+00
 -7.421  0.000E+00  0.000E+00
 -7.321  0.000E+00  0.000E+00
 -7.221  0.000E+00  0.000E+00
 -7.121  0.000E+00  0.000E+00
 -7.021  0.000E+00  0.000E+00
 -6.921  0.000E+00  0.000E+00
 -6.821  0.000E+00  0.000E+00
 -6.721  0.000E+00  0.000E+00
 -6.621  0.000E+00  0.000E+00
 -6.521  0.000E+00  0.000E+00
 -6.421  0.000E+00  0.000E+00
 -6.321  0.000E+00  0.000E+00
 -6.221  0.000E+00  0.000E+00
 -6.121  0.000E+00  0.000E+00
 -6.021  0.000E+00  0.000E+00
 -5.921  0.000E+00  0.000E+00
 -5.821  0.000E+00  0.000E+00
 -5.721  0.000E+00  0.000E+00
 -5.621  0.000E+00  0.000E+00
 -5.521  0.000E+00  0.000E+00
 -5.421  0.000E+00  0.000E+00
 -5.321  0.000E+00  0.000E+00
 -5.221  0.000E+00  0.000E+00
 -5.121  0.000E+00  0.000E+00
 -5.021  0.000E+00  0.000E+00
 -4.921  0.000E+00  0.000E+00
 -4.821  0.000E+00  0.000E+00
 -4.721  0.000E+00  0.000E+00
 -4.621  0.000E+00  0.000E+00
 -4.521  0.000E+00  0.000E+00
 -4.421  0.000E+00  0.000E+00
 -4.321  0.000E+00  0.000E+00
 -4.221  0.000E+00  0.000E+00
 -4.121  0.000E+00  0.000E+00
 -4.021  0.000E+00  0.000E+00
 -3.921  0.000E+00  0.000E+00
 -3.821  0.000E+00  0.000E+00
 -3.721  0.000E+00  0.000E+00
 -3.621  0.000E+00  0.000E+00
 -3.521  0.000E+00  0.000E+00
 -3.421  0.000E+00  0.000E+00
 -3.321  0.000E+00  0.000E+00
 -3.221  0.000E+00  0.000E+00
 -3.121  0.000E+00  0.000E+00
 -3.021  0.000E+00  0.000E+00
 -2.921  0.000E+00  0.000E+00
 -2.821  0.000E+00  0.000E+00
 -2.721  0.000E+00  0.000E+00
 -2.621  0.000E+00  0.000E+00
 -2.521  0.000E+00  0.000E+00
 -2.421  0.000E+00  0.000E+00
 -2.321  0.000E+00  0.000E+00
 -2.221  0.000E+00  0.000E+00
 -2.121  0.000E+00  0.000E+00
 -2.021  0.181E-16  0.181E-16
 -1.921  0.149E-11  0.148E-11
 -1.821  0.165E-07  0.165E-07
 -1.721  0.248E-04  0.248E-04
 -1.621  0.504E-02  0.503E-02
 -1.521  0.139E+00  0.138E+00
 -1.421  0.516E+00  0.516E+00
 -1.321  0.260E+00  0.260E+00
 -1.221  0.247E-01  0.247E-01
 -1.121  0.309E+00  0.309E+00
 -1.021  0.201E+01  0.200E+01
 -0.921  0.299E+01  0.298E+01
 -0.821  0.327E+01  0.327E+01
 -0.721  0.315E+01  0.314E+01
 -0.621  0.549E+01  0.549E+01
 -0.521  0.565E+01  0.564E+01
 -0.421  0.530E+01  0.529E+01
 -0.321  0.765E+01  0.764E+01
 -0.221  0.493E+01  0.492E+01
 -0.121  0.421E+01  0.420E+01
 -0.021  0.628E+01  0.626E+01
  0.079  0.626E+01  0.625E+01
  0.179  0.577E+01  0.576E+01
  0.279  0.280E+01  0.279E+01
  0.379  0.139E+01  0.138E+01
  0.479  0.530E+01  0.528E+01
  0.579  0.942E+01  0.938E+01
  0.679  0.116E+02  0.116E+02
  0.779  0.107E+02  0.107E+02
  0.879  0.106E+02  0.106E+02
  0.979  0.691E+01  0.690E+01
  1.079  0.702E+01  0.701E+01
  1.179  0.814E+01  0.813E+01
  1.279  0.607E+01  0.606E+01
  1.379  0.846E+01  0.844E+01
  1.479  0.125E+02  0.124E+02
  1.579  0.108E+02  0.107E+02
  1.679  0.981E+01  0.979E+01
  1.779  0.131E+02  0.131E+02
  1.879  0.176E+02  0.175E+02
  1.979  0.171E+02  0.171E+02
  2.079  0.161E+02  0.161E+02
  2.179  0.138E+02  0.138E+02
  2.279  0.153E+02  0.153E+02
  2.379  0.195E+02  0.194E+02
  2.479  0.166E+02  0.166E+02
  2.579  0.156E+02  0.156E+02
  2.679  0.203E+02  0.203E+02
  2.779  0.220E+02  0.219E+02
  2.879  0.152E+02  0.152E+02
  2.979  0.730E+01  0.729E+01
  3.079  0.243E+01  0.242E+01
  3.179  0.774E+00  0.763E+00
  3.279  0.157E+01  0.153E+01
  3.379  0.626E+00  0.606E+00
  3.479  0.359E-01  0.345E-01
  3.579  0.405E-03  0.390E-03
  3.679  0.173E-01  0.170E-01
  3.779  0.367E+00  0.362E+00
  3.879  0.106E+01  0.104E+01
  3.979  0.494E+00  0.487E+00
  4.079  0.119E+01  0.116E+01
  4.179  0.394E+01  0.385E+01
  4.279  0.575E+01  0.564E+01
  4.379  0.285E+01  0.280E+01
  4.479  0.788E+00  0.776E+00
  4.579  0.367E+01  0.362E+01
  4.679  0.507E+01  0.500E+01
  4.779  0.548E+01  0.538E+01
  4.879  0.730E+01  0.714E+01
  4.979  0.467E+01  0.460E+01
  5.079  0.187E+01  0.185E+01
  5.179  0.289E+01  0.285E+01
  5.279  0.380E+01  0.375E+01
  5.379  0.160E+01  0.157E+01
  5.479  0.519E+01  0.509E+01
  5.579  0.816E+01  0.801E+01
  5.679  0.263E+01  0.258E+01
  5.779  0.174E+01  0.170E+01
  5.879  0.365E+01  0.360E+01
  5.979  0.576E+01  0.570E+01
  6.079  0.579E+01  0.573E+01
  6.179  0.135E+01  0.133E+01
  6.279  0.294E+01  0.292E+01
  6.379  0.105E+02  0.104E+02
  6.479  0.815E+01  0.808E+01
  6.579  0.224E+01  0.222E+01
  6.679  0.205E+01  0.203E+01
  6.779  0.233E+01  0.231E+01
  6.879  0.233E+01  0.231E+01
  6.979  0.106E+01  0.106E+01
  7.079  0.568E+00  0.565E+00
  7.179  0.160E+00  0.160E+00
  7.279  0.661E-02  0.658E-02
  7.379  0.370E-04  0.368E-04
  7.479  0.110E-06  0.108E-06
  7.579  0.623E-04  0.612E-04
  7.679  0.644E-02  0.632E-02
  7.779  0.901E-01  0.885E-01
  7.879  0.171E+00  0.168E+00
  7.979  0.437E-01  0.429E-01
  8.079  0.152E-02  0.149E-02
  8.179  0.712E-05  0.699E-05
  8.279  0.176E-07  0.173E-07
  8.379  0.245E-04  0.241E-04
  8.479  0.620E-02  0.609E-02
  8.579  0.213E+00  0.209E+00
  8.679  0.985E+00  0.967E+00
  8.779  0.618E+00  0.607E+00
  8.879  0.525E-01  0.515E-01
  8.979  0.696E-03  0.683E-03
  9.079  0.193E-01  0.188E-01
  9.179  0.542E+00  0.529E+00
  9.279  0.206E+01  0.201E+01
  9.379  0.106E+01  0.103E+01
  9.479  0.735E-01  0.717E-01
  9.579  0.688E-02  0.667E-02
  9.679  0.241E+00  0.233E+00
  9.779  0.127E+01  0.122E+01
  9.879  0.102E+01  0.872E+00
  9.979  0.440E+00  0.847E-01
 10.079  0.201E+00  0.628E-01
 10.179  0.752E+00  0.704E+00
 10.279  0.258E+01  0.224E+01
 10.379  0.616E+01  0.516E+01
 10.479  0.448E+01  0.382E+01
 10.579  0.233E+01  0.198E+01
 10.679  0.694E+00  0.461E+00
 10.779  0.145E+01  0.350E+00
 10.879  0.209E+01  0.795E+00
 10.979  0.282E+01  0.153E+01
 11.079  0.406E+01  0.264E+01
 11.179  0.150E+01  0.109E+01
 11.279  0.130E+00  0.935E-01
 11.379  0.777E+00  0.484E+00
 11.479  0.328E+01  0.190E+01
 11.579  0.437E+01  0.204E+01
 11.679  0.472E+01  0.133E+01
 11.779  0.303E+01  0.953E+00
 11.879  0.129E+01  0.100E+01
 11.979  0.684E+00  0.610E+00
 12.079  0.850E+00  0.695E+00
 12.179  0.873E+00  0.698E+00
 12.279  0.108E+01  0.540E+00
 12.379  0.404E+01  0.186E+01
 12.479  0.229E+01  0.106E+01
 12.579  0.178E+00  0.814E-01
 12.679  0.890E-01  0.144E-02
 12.779  0.769E+00  0.158E-01
 12.879  0.134E+01  0.366E+00
 12.979  0.216E+01  0.161E+01
 13.079  0.172E+01  0.134E+01
 13.179  0.155E+01  0.116E+01
 13.279  0.683E+00  0.544E+00
 13.379  0.118E+00  0.109E+00
 13.479  0.711E-02  0.687E-02
 13.579  0.703E-04  0.682E-04
 13.679  0.234E-03  0.545E-04
 13.779  0.360E-01  0.837E-02
 13.879  0.750E+00  0.174E+00
 13.979  0.212E+01  0.491E+00
 14.079  0.807E+00  0.187E+00
 14.179  0.416E-01  0.967E-02
 14.279  0.291E-03  0.676E-04
 14.379  0.275E-06  0.639E-07
 14.479  0.352E-10  0.818E-11
 14.579  0.610E-15  0.142E-15
 14.679  0.000E+00  0.000E+00
 14.779  0.000E+00  0.000E+00
 14.879  0.197E-17  0.464E-20
 14.979  0.257E-12  0.606E-15
 15.079  0.453E-08  0.107E-10
 15.179  0.108E-04  0.256E-07
 15.279  0.350E-02  0.827E-05
 15.379  0.153E+00  0.362E-03
 15.479  0.909E+00  0.215E-02
 15.579  0.729E+00  0.172E-02
 15.679  0.791E-01  0.187E-03
 15.779  0.116E-02  0.274E-05
 15.879  0.231E-05  0.579E-08
 15.979  0.106E-05  0.965E-06
 16.079  0.400E-03  0.365E-03
 16.179  0.205E-01  0.186E-01
 16.279  0.142E+00  0.129E+00
 16.379  0.133E+00  0.121E+00
 16.479  0.168E-01  0.153E-01
 16.579  0.289E-03  0.263E-03
 16.679  0.670E-06  0.610E-06
