# E (eV)   ldos(E)   pdos(E)    
-12.721  0.807E-05  0.807E-05
-12.621  0.120E-02  0.120E-02
-12.521  0.241E-01  0.241E-01
-12.421  0.655E-01  0.655E-01
-12.321  0.309E-01  0.309E-01
-12.221  0.145E+00  0.145E+00
-12.121  0.432E+00  0.432E+00
-12.021  0.386E+00  0.386E+00
-11.921  0.113E+01  0.113E+01
-11.821  0.171E+01  0.171E+01
-11.721  0.125E+01  0.125E+01
-11.621  0.365E+00  0.365E+00
-11.521  0.508E+00  0.508E+00
-11.421  0.223E+01  0.223E+01
-11.321  0.170E+01  0.170E+01
-11.221  0.216E+00  0.216E+00
-11.121  0.120E+00  0.120E+00
-11.021  0.141E+01  0.141E+01
-10.921  0.244E+01  0.244E+01
-10.821  0.114E+01  0.114E+01
-10.721  0.911E+00  0.911E+00
-10.621  0.221E+00  0.221E+00
-10.521  0.120E+00  0.120E+00
-10.421  0.142E+00  0.142E+00
-10.321  0.366E-01  0.366E-01
-10.221  0.161E-02  0.161E-02
-10.121  0.103E-04  0.103E-04
-10.021  0.913E-08  0.913E-08
 -9.921  0.110E-11  0.110E-11
 -9.821  0.180E-16  0.180E-16
 -9.721  0.000E+00  0.000E+00
 -9.621  0.000E+00  0.000E+00
 -9.521  0.000E+00  0.000E+00
 -9.421  0.000E+00  0.000E+00
 -9.321  0.000E+00  0.000E+00
 -9.221  0.000E+00  0.000E+00
 -9.121  0.000E+00  0.000E+00
 -9.021  0.000E+00  0.000E+00
 -8.921  0.000E+00  0.000E+00
 -8.821  0.000E+00  0.000E+00
 -8.721  0.000E+00  0.000E+00
 -8.621  0.000E+00  0.000E+00
 -8.521  0.000E+00  0.000E+00
 -8.421  0.000E+00  0.000E+00
 -8.321  0.000E+00  0.000E+00
 -8.221  0.000E+00  0.000E+00
 -8.121  0.000E+00  0.000E+00
 -8.021  0.000E+00  0.000E+00
 -7.921  0.000E+00  0.000E+00
 -7.821  0.000E+00  0.000E+00
 -7.721  0.000E+00  0.000E+00
 -7.621  0.000E+00  0.000E+00
 -7.521  0.000E+00  0.000E+00
 -7.421  0.000E+00  0.000E+00
 -7.321  0.000E+00  0.000E+00
 -7.221  0.000E+00  0.000E+00
 -7.121  0.000E+00  0.000E+00
 -7.021  0.000E+00  0.000E+00
 -6.921  0.000E+00  0.000E+00
 -6.821  0.000E+00  0.000E+00
 -6.721  0.000E+00  0.000E+00
 -6.621  0.000E+00  0.000E+00
 -6.521  0.000E+00  0.000E+00
 -6.421  0.000E+00  0.000E+00
 -6.321  0.000E+00  0.000E+00
 -6.221  0.000E+00  0.000E+00
 -6.121  0.000E+00  0.000E+00
 -6.021  0.000E+00  0.000E+00
 -5.921  0.000E+00  0.000E+00
 -5.821  0.000E+00  0.000E+00
 -5.721  0.000E+00  0.000E+00
 -5.621  0.000E+00  0.000E+00
 -5.521  0.000E+00  0.000E+00
 -5.421  0.000E+00  0.000E+00
 -5.321  0.000E+00  0.000E+00
 -5.221  0.000E+00  0.000E+00
 -5.121  0.000E+00  0.000E+00
 -5.021  0.000E+00  0.000E+00
 -4.921  0.000E+00  0.000E+00
 -4.821  0.000E+00  0.000E+00
 -4.721  0.000E+00  0.000E+00
 -4.621  0.000E+00  0.000E+00
 -4.521  0.000E+00  0.000E+00
 -4.421  0.000E+00  0.000E+00
 -4.321  0.000E+00  0.000E+00
 -4.221  0.000E+00  0.000E+00
 -4.121  0.000E+00  0.000E+00
 -4.021  0.000E+00  0.000E+00
 -3.921  0.000E+00  0.000E+00
 -3.821  0.000E+00  0.000E+00
 -3.721  0.000E+00  0.000E+00
 -3.621  0.000E+00  0.000E+00
 -3.521  0.000E+00  0.000E+00
 -3.421  0.000E+00  0.000E+00
 -3.321  0.000E+00  0.000E+00
 -3.221  0.000E+00  0.000E+00
 -3.121  0.000E+00  0.000E+00
 -3.021  0.000E+00  0.000E+00
 -2.921  0.000E+00  0.000E+00
 -2.821  0.000E+00  0.000E+00
 -2.721  0.000E+00  0.000E+00
 -2.621  0.000E+00  0.000E+00
 -2.521  0.000E+00  0.000E+00
 -2.421  0.000E+00  0.000E+00
 -2.321  0.000E+00  0.000E+00
 -2.221  0.000E+00  0.000E+00
 -2.121  0.000E+00  0.000E+00
 -2.021  0.232E-33  0.232E-33
 -1.921  0.191E-28  0.191E-28
 -1.821  0.212E-24  0.212E-24
 -1.721  0.318E-21  0.318E-21
 -1.621  0.646E-19  0.646E-19
 -1.521  0.180E-17  0.180E-17
 -1.421  0.226E-14  0.226E-14
 -1.321  0.383E-10  0.383E-10
 -1.221  0.878E-07  0.878E-07
 -1.121  0.272E-04  0.272E-04
 -1.021  0.114E-02  0.114E-02
 -0.921  0.651E-02  0.651E-02
 -0.821  0.508E-02  0.508E-02
 -0.721  0.149E-02  0.149E-02
 -0.621  0.217E-02  0.217E-02
 -0.521  0.434E-02  0.434E-02
 -0.421  0.130E-01  0.130E-01
 -0.321  0.216E-01  0.216E-01
 -0.221  0.171E-01  0.171E-01
 -0.121  0.919E-02  0.919E-02
 -0.021  0.818E-02  0.818E-02
  0.079  0.795E-02  0.795E-02
  0.179  0.142E-01  0.142E-01
  0.279  0.112E-01  0.112E-01
  0.379  0.615E-02  0.615E-02
  0.479  0.189E-01  0.189E-01
  0.579  0.146E-01  0.146E-01
  0.679  0.497E-02  0.497E-02
  0.779  0.126E-01  0.126E-01
  0.879  0.196E-01  0.196E-01
  0.979  0.566E-02  0.566E-02
  1.079  0.230E-02  0.230E-02
  1.179  0.283E-02  0.283E-02
  1.279  0.376E-02  0.376E-02
  1.379  0.673E-02  0.673E-02
  1.479  0.225E-01  0.225E-01
  1.579  0.182E-01  0.182E-01
  1.679  0.802E-02  0.802E-02
  1.779  0.484E-02  0.484E-02
  1.879  0.327E-02  0.327E-02
  1.979  0.151E-01  0.151E-01
  2.079  0.185E-01  0.185E-01
  2.179  0.133E-01  0.133E-01
  2.279  0.235E-01  0.235E-01
  2.379  0.446E-01  0.446E-01
  2.479  0.462E-01  0.462E-01
  2.579  0.226E-01  0.226E-01
  2.679  0.205E-01  0.205E-01
  2.779  0.581E-01  0.581E-01
  2.879  0.563E-01  0.563E-01
  2.979  0.390E-01  0.390E-01
  3.079  0.184E-01  0.184E-01
  3.179  0.988E-02  0.988E-02
  3.279  0.198E-01  0.198E-01
  3.379  0.658E-02  0.658E-02
  3.479  0.296E-03  0.296E-03
  3.579  0.358E-05  0.358E-05
  3.679  0.281E-03  0.281E-03
  3.779  0.597E-02  0.597E-02
  3.879  0.172E-01  0.172E-01
  3.979  0.671E-02  0.671E-02
  4.079  0.121E-02  0.121E-02
  4.179  0.158E-01  0.158E-01
  4.279  0.421E-01  0.421E-01
  4.379  0.186E-01  0.186E-01
  4.479  0.620E-02  0.620E-02
  4.579  0.261E-01  0.261E-01
  4.679  0.379E-01  0.379E-01
  4.779  0.370E-01  0.370E-01
  4.879  0.901E-02  0.901E-02
  4.979  0.356E-03  0.356E-03
  5.079  0.288E-02  0.288E-02
  5.179  0.270E-01  0.270E-01
  5.279  0.353E-01  0.353E-01
  5.379  0.210E-01  0.210E-01
  5.479  0.276E-01  0.276E-01
  5.579  0.676E-02  0.676E-02
  5.679  0.267E-03  0.267E-03
  5.779  0.473E-03  0.473E-03
  5.879  0.165E-02  0.165E-02
  5.979  0.840E-02  0.840E-02
  6.079  0.127E-01  0.127E-01
  6.179  0.312E-02  0.312E-02
  6.279  0.400E-02  0.400E-02
  6.379  0.118E-01  0.118E-01
  6.479  0.997E-02  0.997E-02
  6.579  0.177E-02  0.177E-02
  6.679  0.190E-02  0.190E-02
  6.779  0.172E-02  0.172E-02
  6.879  0.216E-03  0.216E-03
  6.979  0.366E-05  0.366E-05
  7.079  0.839E-08  0.839E-08
  7.179  0.261E-11  0.261E-11
  7.279  0.157E-15  0.157E-15
  7.379  0.196E-11  0.196E-11
  7.479  0.110E-07  0.110E-07
  7.579  0.843E-05  0.843E-05
  7.679  0.872E-03  0.872E-03
  7.779  0.122E-01  0.122E-01
  7.879  0.231E-01  0.231E-01
  7.979  0.592E-02  0.592E-02
  8.079  0.205E-03  0.205E-03
  8.179  0.964E-06  0.964E-06
  8.279  0.194E-08  0.194E-08
  8.379  0.248E-05  0.248E-05
  8.479  0.627E-03  0.627E-03
  8.579  0.215E-01  0.215E-01
  8.679  0.995E-01  0.995E-01
  8.779  0.624E-01  0.624E-01
  8.879  0.530E-02  0.530E-02
  8.979  0.684E-04  0.684E-04
  9.079  0.156E-02  0.156E-02
  9.179  0.438E-01  0.438E-01
  9.279  0.166E+00  0.166E+00
  9.379  0.855E-01  0.855E-01
  9.479  0.594E-02  0.594E-02
  9.579  0.458E-03  0.458E-03
  9.679  0.156E-01  0.156E-01
  9.779  0.822E-01  0.822E-01
  9.879  0.585E-01  0.585E-01
  9.979  0.568E-02  0.568E-02
 10.079  0.346E-02  0.346E-02
 10.179  0.385E-01  0.385E-01
 10.279  0.121E+00  0.121E+00
 10.379  0.273E+00  0.273E+00
 10.479  0.196E+00  0.196E+00
 10.579  0.967E-01  0.967E-01
 10.679  0.214E-01  0.214E-01
 10.779  0.560E-02  0.560E-02
 10.879  0.135E-01  0.135E-01
 10.979  0.404E-01  0.404E-01
 11.079  0.779E-01  0.779E-01
 11.179  0.331E-01  0.331E-01
 11.279  0.224E-02  0.224E-02
 11.379  0.213E-04  0.213E-04
 11.479  0.280E-07  0.280E-07
 11.579  0.669E-06  0.669E-06
 11.679  0.154E-03  0.154E-03
 11.779  0.480E-02  0.480E-02
 11.879  0.202E-01  0.202E-01
 11.979  0.115E-01  0.115E-01
 12.079  0.892E-03  0.892E-03
 12.179  0.967E-05  0.967E-05
 12.279  0.109E-04  0.109E-04
 12.379  0.457E-04  0.457E-04
 12.479  0.260E-04  0.260E-04
 12.579  0.200E-05  0.200E-05
 12.679  0.208E-07  0.208E-07
 12.779  0.402E-08  0.402E-08
 12.879  0.433E-05  0.433E-05
 12.979  0.635E-03  0.635E-03
 13.079  0.126E-01  0.126E-01
 13.179  0.339E-01  0.339E-01
 13.279  0.123E-01  0.123E-01
 13.379  0.607E-03  0.607E-03
 13.479  0.404E-05  0.404E-05
 13.579  0.365E-08  0.365E-08
 13.679  0.405E-08  0.405E-08
 13.779  0.624E-06  0.624E-06
 13.879  0.130E-04  0.130E-04
 13.979  0.366E-04  0.366E-04
 14.079  0.140E-04  0.140E-04
 14.179  0.721E-06  0.721E-06
 14.279  0.504E-08  0.504E-08
 14.379  0.476E-11  0.476E-11
 14.479  0.609E-15  0.609E-15
 14.579  0.106E-19  0.106E-19
 14.679  0.000E+00  0.000E+00
 14.779  0.000E+00  0.000E+00
 14.879  0.589E-28  0.589E-28
 14.979  0.768E-23  0.768E-23
 15.079  0.136E-18  0.136E-18
 15.179  0.324E-15  0.324E-15
 15.279  0.105E-12  0.105E-12
 15.379  0.459E-11  0.459E-11
 15.479  0.272E-10  0.272E-10
 15.579  0.218E-10  0.218E-10
 15.679  0.237E-11  0.237E-11
 15.779  0.347E-13  0.347E-13
 15.879  0.690E-16  0.690E-16
 15.979  0.234E-18  0.234E-18
 16.079  0.813E-16  0.813E-16
 16.179  0.416E-14  0.416E-14
 16.279  0.288E-13  0.288E-13
 16.379  0.269E-13  0.269E-13
 16.479  0.342E-14  0.342E-14
 16.579  0.586E-16  0.586E-16
 16.679  0.136E-18  0.136E-18
